Freq[Hz]     dBSPL  Phase[Deg]
5.00000     -0.001     0.167
5.07273     -0.001     0.170
5.14651     -0.001     0.172
5.22137     -0.001     0.174
5.29732     -0.001     0.177
5.37437     -0.001     0.180
5.45254     -0.001     0.182
5.53185     -0.001     0.185
5.61231     -0.001     0.188
5.69394     -0.001     0.190
5.77676     -0.001     0.193
5.86079     -0.001     0.196
5.94604     -0.001     0.199
6.03252     -0.001     0.202
6.12027     -0.001     0.205
6.20929     -0.001     0.207
6.29961     -0.001     0.211
6.39124     -0.001     0.214
6.48420     -0.001     0.217
6.57851     -0.001     0.220
6.67420     -0.001     0.223
6.77128     -0.001     0.226
6.86977     -0.001     0.230
6.96969     -0.001     0.233
7.07107     -0.001     0.236
7.17392     -0.001     0.240
7.27827     -0.001     0.243
7.38413     -0.001     0.247
7.49154     -0.001     0.250
7.60050     -0.001     0.254
7.71105     -0.001     0.258
7.82321     -0.001     0.261
7.93701     -0.001     0.265
8.05245     -0.001     0.269
8.16958     -0.001     0.273
8.28841     -0.001     0.277
8.40896      0.000     0.281
8.53128      0.000     0.285
8.65537      0.000     0.289
8.78126      0.000     0.293
8.90899      0.000     0.298
9.03857      0.000     0.302
9.17004      0.000     0.306
9.30342      0.000     0.311
9.43874      0.000     0.315
9.57603      0.000     0.320
9.71532      0.000     0.325
9.85663      0.000     0.329
10.0000      0.000     0.334
10.1455      0.000     0.339
10.2930      0.000     0.344
10.4427      0.000     0.349
10.5946      0.000     0.354
10.7487      0.000     0.359
10.9051      0.000     0.364
11.0637      0.000     0.370
11.2246      0.000     0.375
11.3879      0.000     0.380
11.5535      0.000     0.386
11.7216      0.000     0.392
11.8921      0.000     0.397
12.0650      0.000     0.403
12.2405      0.000     0.409
12.4186      0.000     0.415
12.5992      0.000     0.421
12.7825      0.000     0.427
12.9684      0.000     0.433
13.1570      0.000     0.440
13.3484      0.000     0.446
13.5426      0.000     0.452
13.7395      0.001     0.459
13.9394      0.001     0.466
14.1421      0.001     0.472
14.3478      0.001     0.479
14.5565      0.001     0.486
14.7683      0.001     0.493
14.9831      0.001     0.501
15.2010      0.001     0.508
15.4221      0.001     0.515
15.6464      0.001     0.523
15.8740      0.001     0.530
16.1049      0.001     0.538
16.3392      0.001     0.546
16.5768      0.001     0.554
16.8179      0.001     0.562
17.0626      0.001     0.570
17.3107      0.001     0.578
17.5625      0.002     0.587
17.8180      0.002     0.595
18.0771      0.002     0.604
18.3401      0.002     0.613
18.6068      0.002     0.621
18.8775      0.002     0.630
19.1521      0.002     0.640
19.4306      0.002     0.649
19.7133      0.002     0.658
20.0000      0.002     0.668
20.2909      0.002     0.678
20.5860      0.003     0.687
20.8855      0.003     0.697
21.1893      0.003     0.708
21.4975      0.003     0.718
21.8102      0.003     0.728
22.1274      0.003     0.739
22.4492      0.003     0.750
22.7758      0.003     0.760
23.1071      0.004     0.771
23.4432      0.004     0.783
23.7841      0.004     0.794
24.1301      0.004     0.806
24.4811      0.004     0.817
24.8372      0.004     0.829
25.1984      0.004     0.841
25.5649      0.005     0.853
25.9368      0.005     0.866
26.3141      0.005     0.878
26.6968      0.005     0.891
27.0851      0.005     0.904
27.4791      0.005     0.917
27.8788      0.006     0.930
28.2843      0.006     0.944
28.6957      0.006     0.957
29.1131      0.006     0.971
29.5365      0.006     0.985
29.9661      0.007     1.000
30.4020      0.007     1.014
30.8442      0.007     1.029
31.2929      0.007     1.044
31.7480      0.008     1.059
32.2098      0.008     1.074
32.6783      0.008     1.090
33.1536      0.008     1.106
33.6359      0.009     1.122
34.1251      0.009     1.138
34.6215      0.009     1.154
35.1250      0.010     1.171
35.6359      0.010     1.188
36.1543      0.010     1.205
36.6802      0.011     1.223
37.2137      0.011     1.240
37.7550      0.011     1.258
38.3041      0.012     1.276
38.8613      0.012     1.295
39.4265      0.012     1.314
40.0000      0.013     1.333
40.5818      0.013     1.352
41.1721      0.014     1.371
41.7710      0.014     1.391
42.3785      0.014     1.411
42.9949      0.015     1.432
43.6203      0.015     1.452
44.2548      0.016     1.473
44.8985      0.016     1.495
45.5515      0.017     1.516
46.2141      0.017     1.538
46.8863      0.018     1.560
47.5683      0.018     1.583
48.2602      0.019     1.606
48.9621      0.020     1.629
49.6743      0.020     1.652
50.3968      0.021     1.676
51.1299      0.021     1.700
51.8736      0.022     1.725
52.6281      0.023     1.749
53.3936      0.023     1.775
54.1702      0.024     1.800
54.9581      0.025     1.826
55.7575      0.026     1.852
56.5685      0.026     1.879
57.3914      0.027     1.906
58.2261      0.028     1.933
59.0730      0.029     1.961
59.9323      0.030     1.989
60.8040      0.031     2.018
61.6884      0.032     2.046
62.5857      0.033     2.076
63.4960      0.034     2.105
64.4196      0.035     2.136
65.3566      0.036     2.166
66.3073      0.037     2.197
67.2717      0.038     2.229
68.2502      0.039     2.260
69.2429      0.040     2.293
70.2501      0.041     2.325
71.2719      0.043     2.359
72.3086      0.044     2.392
73.3603      0.045     2.426
74.4274      0.046     2.461
75.5099      0.048     2.496
76.6083      0.049     2.531
77.7226      0.051     2.567
78.8531      0.052     2.604
80.0000      0.054     2.641
81.1636      0.055     2.678
82.3442      0.057     2.716
83.5419      0.059     2.754
84.7570      0.061     2.793
85.9899      0.062     2.833
87.2406      0.064     2.873
88.5096      0.066     2.913
89.7970      0.068     2.954
91.1031      0.070     2.996
92.4282      0.072     3.038
93.7726      0.074     3.081
95.1366      0.076     3.124
96.5204      0.079     3.168
97.9243      0.081     3.212
99.3486      0.083     3.257
100.794      0.086     3.303
102.260      0.088     3.349
103.747      0.091     3.395
105.256      0.094     3.443
106.787      0.096     3.490
108.340      0.099     3.539
109.916      0.102     3.588
111.515      0.105     3.638
113.137      0.108     3.688
114.783      0.111     3.739
116.452      0.114     3.790
118.146      0.118     3.843
119.865      0.121     3.895
121.608      0.125     3.949
123.377      0.128     4.003
125.171      0.132     4.057
126.992      0.136     4.113
128.839      0.140     4.169
130.713      0.144     4.225
132.615      0.148     4.283
134.543      0.153     4.340
136.500      0.157     4.399
138.486      0.161     4.458
140.500      0.166     4.518
142.544      0.171     4.578
144.617      0.176     4.640
146.721      0.181     4.701
148.855      0.186     4.764
151.020      0.192     4.827
153.217      0.197     4.891
155.445      0.203     4.955
157.706      0.209     5.020
160.000      0.215     5.086
162.327      0.221     5.152
164.688      0.227     5.219
167.084      0.233     5.287
169.514      0.240     5.355
171.980      0.247     5.424
174.481      0.254     5.493
177.019      0.261     5.563
179.594      0.269     5.634
182.206      0.276     5.705
184.856      0.284     5.777
187.545      0.292     5.849
190.273      0.301     5.922
193.041      0.309     5.996
195.849      0.318     6.070
198.697      0.327     6.144
201.587      0.336     6.219
204.520      0.345     6.295
207.494      0.355     6.371
210.512      0.365     6.447
213.574      0.375     6.524
216.681      0.386     6.601
219.833      0.397     6.678
223.030      0.408     6.756
226.274      0.419     6.835
229.565      0.431     6.913
232.905      0.443     6.992
236.292      0.455     7.071
239.729      0.468     7.150
243.216      0.481     7.229
246.754      0.494     7.309
250.343      0.507     7.388
253.984      0.521     7.468
257.678      0.536     7.547
261.426      0.550     7.626
265.229      0.565     7.706
269.087      0.581     7.785
273.001      0.596     7.864
276.972      0.612     7.943
281.000      0.629     8.021
285.088      0.646     8.099
289.234      0.663     8.176
293.441      0.681     8.253
297.709      0.699     8.330
302.040      0.718     8.406
306.433      0.737     8.480
310.890      0.756     8.555
315.412      0.776     8.628
320.000      0.797     8.700
324.655      0.817     8.771
329.377      0.839     8.841
334.168      0.861     8.910
339.028      0.883     8.977
343.959      0.906     9.043
348.962      0.929     9.107
354.038      0.952     9.169
359.188      0.977     9.230
364.412      1.001     9.289
369.713      1.027     9.345
375.090      1.052     9.399
380.546      1.079     9.451
386.081      1.105     9.501
391.697      1.133     9.548
397.394      1.160     9.592
403.175      1.189     9.633
409.039      1.217     9.671
414.989      1.247     9.705
421.025      1.276     9.737
427.149      1.307     9.765
433.362      1.337     9.789
439.665      1.369     9.809
446.060      1.400     9.825
452.548      1.432     9.836
459.131      1.465     9.843
465.809      1.498     9.846
472.584      1.532     9.843
479.458      1.566     9.836
486.432      1.600     9.823
493.507      1.635     9.805
500.686      1.670     9.781
507.968      1.706     9.752
515.357      1.741     9.716
522.853      1.778     9.674
530.458      1.814     9.626
538.174      1.851     9.571
546.002      1.888     9.509
553.943      1.925     9.441
562.001      1.962     9.365
570.175      1.999     9.281
578.469      2.037     9.191
586.883      2.074     9.092
595.419      2.112     8.986
604.080      2.150     8.871
612.866      2.187     8.749
621.780      2.224     8.618
630.824      2.261     8.479
640.000      2.298     8.331
649.309      2.335     8.175
658.753      2.371     8.010
668.335      2.407     7.836
678.056      2.442     7.654
687.919      2.477     7.463
697.925      2.512     7.263
708.077      2.545     7.054
718.376      2.578     6.837
728.825      2.610     6.611
739.426      2.642     6.377
750.181      2.672     6.135
761.093      2.702     5.884
772.163      2.730     5.625
783.394      2.757     5.359
794.789      2.783     5.084
806.349      2.808     4.803
818.078      2.832     4.515
829.977      2.854     4.220
842.050      2.875     3.918
854.298      2.894     3.611
866.724      2.912     3.298
879.330      2.929     2.980
892.120      2.943     2.657
905.097      2.956     2.331
918.262      2.968     2.000
931.618      2.977     1.666
945.169      2.985     1.330
958.917      2.991     0.991
972.864      2.996     0.651
987.015      2.998     0.309
1001.37      2.999    -0.032
1015.94      2.998    -0.374
1030.71      2.995    -0.715
1045.71      2.990    -1.056
1060.92      2.984    -1.394
1076.35      2.976    -1.730
1092.00      2.966    -2.063
1107.89      2.954    -2.393
1124.00      2.941    -2.720
1140.35      2.926    -3.041
1156.94      2.909    -3.359
1173.77      2.891    -3.671
1190.84      2.871    -3.977
1208.16      2.850    -4.277
1225.73      2.827    -4.571
1243.56      2.804    -4.858
1261.65      2.778    -5.139
1280.00      2.752    -5.411
1298.62      2.724    -5.677
1317.51      2.696    -5.934
1336.67      2.666    -6.183
1356.11      2.636    -6.425
1375.84      2.604    -6.657
1395.85      2.572    -6.882
1416.15      2.539    -7.097
1436.75      2.505    -7.304
1457.65      2.470    -7.503
1478.85      2.435    -7.692
1500.36      2.400    -7.873
1522.19      2.364    -8.045
1544.33      2.327    -8.208
1566.79      2.291    -8.363
1589.58      2.254    -8.509
1612.70      2.216    -8.647
1636.16      2.179    -8.776
1659.95      2.141    -8.897
1684.10      2.104    -9.010
1708.60      2.066    -9.115
1733.45      2.029    -9.212
1758.66      1.991    -9.301
1784.24      1.954    -9.383
1810.19      1.916    -9.457
1836.52      1.879    -9.524
1863.24      1.842    -9.585
1890.34      1.805    -9.638
1917.83      1.769    -9.685
1945.73      1.733    -9.725
1974.03      1.697    -9.760
2002.74      1.661    -9.788
2031.87      1.626    -9.810
2061.43      1.591    -9.827
2091.41      1.557    -9.838
2121.83      1.523    -9.845
2152.69      1.489    -9.846
2184.01      1.456    -9.842
2215.77      1.424    -9.833
2248.00      1.392    -9.821
2280.70      1.360    -9.803
2313.87      1.329    -9.782
2347.53      1.298    -9.757
2381.68      1.268    -9.728
2416.32      1.238    -9.696
2451.46      1.209    -9.660
2487.12      1.180    -9.621
2523.30      1.152    -9.578
2560.00      1.124    -9.533
2597.24      1.097    -9.485
2635.01      1.070    -9.435
2673.34      1.044    -9.382
2712.23      1.018    -9.326
2751.68      0.993    -9.269
2791.70      0.968    -9.209
2832.31      0.944    -9.148
2873.50      0.920    -9.084
2915.30      0.897    -9.019
2957.70      0.875    -8.952
3000.72      0.852    -8.884
3044.37      0.831    -8.815
3088.65      0.809    -8.744
3133.58      0.788    -8.672
3179.16      0.768    -8.598
3225.40      0.748    -8.524
3272.31      0.729    -8.449
3319.91      0.710    -8.373
3368.20      0.691    -8.297
3417.19      0.673    -8.219
3466.89      0.655    -8.141
3517.32      0.638    -8.063
3568.48      0.621    -7.984
3620.39      0.605    -7.905
3673.05      0.589    -7.825
3726.47      0.573    -7.745
3780.67      0.557    -7.665
3835.67      0.542    -7.585
3891.46      0.528    -7.505
3948.06      0.514    -7.424
4005.49      0.500    -7.344
4063.75      0.486    -7.263
4122.86      0.473    -7.183
4182.82      0.460    -7.103
4243.66      0.448    -7.023
4305.39      0.435    -6.943
4368.01      0.423    -6.863
4431.55      0.412    -6.784
4496.01      0.400    -6.704
4561.40      0.389    -6.626
4627.75      0.379    -6.547
4695.06      0.368    -6.469
4763.35      0.358    -6.391
4832.64      0.348    -6.314
4902.93      0.338    -6.237
4974.24      0.329    -6.160
5046.60      0.320    -6.084
5120.00      0.311    -6.009
5194.47      0.302    -5.934
5270.03      0.293    -5.859
5346.68      0.285    -5.785
5424.45      0.277    -5.712
5503.35      0.269    -5.639
5583.40      0.262    -5.567
5664.61      0.254    -5.495
5747.01      0.247    -5.424
5830.60      0.240    -5.353
5915.41      0.233    -5.283
6001.45      0.226    -5.214
6088.74      0.220    -5.145
6177.30      0.214    -5.077
6267.15      0.208    -5.009
6358.31      0.202    -4.942
6450.80      0.196    -4.876
6544.62      0.190    -4.810
6639.82      0.185    -4.745
6736.40      0.179    -4.681
6834.38      0.174    -4.617
6933.79      0.169    -4.554
7034.64      0.164    -4.492
7136.96      0.159    -4.430
7240.77      0.155    -4.369
7346.09      0.150    -4.308
7452.94      0.146    -4.248
7561.35      0.141    -4.189
7671.33      0.137    -4.130
7782.91      0.133    -4.072
7896.12      0.129    -4.015
8010.97      0.125    -3.958
8127.49      0.122    -3.902
8245.71      0.118    -3.846
8365.65      0.115    -3.791
8487.33      0.111    -3.737
8610.78      0.108    -3.683
8736.03      0.105    -3.630
8863.09      0.101    -3.577
8992.01      0.098    -3.525
9122.80      0.095    -3.474
9255.50      0.092    -3.423
9390.12      0.090    -3.373
9526.70      0.087    -3.323
9665.27      0.084    -3.274
9805.86      0.082    -3.226
9948.49      0.079    -3.178
10093.2      0.077    -3.130
10240.0      0.074    -3.084
10388.9      0.072    -3.037
10540.1      0.070    -2.992
10693.4      0.068    -2.946
10848.9      0.066    -2.902
11006.7      0.063    -2.857
11166.8      0.061    -2.814
11329.2      0.060    -2.771
11494.0      0.058    -2.728
11661.2      0.056    -2.686
11830.8      0.054    -2.644
12002.9      0.052    -2.603
12177.5      0.051    -2.562
12354.6      0.049    -2.522
12534.3      0.047    -2.482
12716.6      0.046    -2.443
12901.6      0.044    -2.404
13089.2      0.043    -2.366
13279.6      0.041    -2.328
13472.8      0.040    -2.290
13668.8      0.039    -2.253
13867.6      0.037    -2.216
14069.3      0.036    -2.180
14273.9      0.035    -2.144
14481.5      0.034    -2.109
14692.2      0.033    -2.074
14905.9      0.031    -2.039
15122.7      0.030    -2.005
15342.7      0.029    -1.971
15565.8      0.028    -1.937
15792.2      0.027    -1.904
16021.9      0.026    -1.871
16255.0      0.025    -1.839
16491.4      0.024    -1.807
16731.3      0.023    -1.775
16974.7      0.023    -1.744
17221.6      0.022    -1.713
17472.1      0.021    -1.682
17726.2      0.020    -1.652
17984.0      0.019    -1.621
18245.6      0.019    -1.592
18511.0      0.018    -1.562
18780.2      0.017    -1.533
19053.4      0.016    -1.504
19330.5      0.016    -1.475
19611.7      0.015    -1.447
19897.0      0.015    -1.419
20186.4      0.014    -1.391
20480.0      0.013    -1.364
20777.9      0.013    -1.337
21080.1      0.012    -1.310
21386.7      0.012    -1.283
21697.8      0.011    -1.256
22013.4      0.011    -1.230
22333.6      0.010    -1.204
22658.4      0.010    -1.178
22988.0      0.009    -1.152
23322.4      0.009    -1.127
23661.6      0.008    -1.102
24005.8      0.008    -1.077
24355.0      0.007    -1.052
24709.2      0.007    -1.027
25068.6      0.007    -1.003
25433.2      0.006    -0.978
25803.2      0.006    -0.954
26178.5      0.006    -0.930
26559.3      0.005    -0.906
26945.6      0.005    -0.883
27337.5      0.005    -0.859
27735.2      0.004    -0.836
28138.6      0.004    -0.813
28547.9      0.004    -0.789
28963.1      0.003    -0.766
29384.4      0.003    -0.743
29811.8      0.003    -0.721
30245.4      0.003    -0.698
30685.3      0.002    -0.675
31131.7      0.002    -0.653
31584.5      0.002    -0.630
32043.9      0.002    -0.608
32510.0      0.002    -0.585
32982.8      0.001    -0.563
33462.6      0.001    -0.540
33949.3      0.001    -0.518
34443.1      0.001    -0.496
34944.1      0.001    -0.473
35452.4      0.000    -0.451
35968.0      0.000    -0.429
36491.2      0.000    -0.406
37022.0      0.000    -0.384
37560.5      0.000    -0.362
38106.8      0.000    -0.339
38661.1      0.000    -0.316
39223.4      0.000    -0.294
39793.9     -0.001    -0.271
