Freq[Hz]     dBSPL  Phase[Deg]
5.00000    -33.905  -175.932
5.07273    -33.171  -176.732
5.14651    -32.436  -177.534
5.22137    -31.701  -178.340
5.29732    -30.967  -179.144
5.37437    -30.233  -179.953
5.45254    -29.497   179.231
5.53185    -28.759   178.409
5.61231    -28.021   177.579
5.69394    -27.280   176.739
5.77676    -26.538   175.890
5.86079    -25.797   175.036
5.94604    -25.052   174.167
6.03252    -24.305   173.290
6.12027    -23.558   172.404
6.20929    -22.809   171.508
6.29961    -22.060   170.604
6.39124    -21.308   169.689
6.48420    -20.556   168.764
6.57851    -19.801   167.828
6.67420    -19.047   166.885
6.77128    -18.292   165.932
6.86977    -17.535   164.968
6.96969    -16.776   163.992
7.07107    -16.016   163.006
7.17392    -15.257   162.012
7.27827    -14.497   161.008
7.38413    -13.737   159.994
7.49154    -12.974   158.967
7.60050    -12.212   157.933
7.71105    -11.450   156.889
7.82321    -10.687   155.833
7.93701     -9.924   154.768
8.05245     -9.160   153.690
8.16958     -8.393   152.597
8.28841     -7.624   151.493
8.40896     -6.854   150.377
8.53128     -6.082   149.244
8.65537     -5.310   148.097
8.78126     -4.535   146.932
8.90899     -3.760   145.753
9.03857     -2.982   144.557
9.17004     -2.204   143.346
9.30342     -1.425   142.118
9.43874     -0.645   140.873
9.57603      0.136   139.613
9.71532      0.917   138.337
9.85663      1.699   137.041
10.0000      2.429   135.727
10.1455      3.203   134.397
10.2930      3.987   133.050
10.4427      4.771   131.684
10.5946      5.557   130.294
10.7487      6.342   128.887
10.9051      7.130   127.454
11.0637      7.919   126.001
11.2246      8.708   124.527
11.3879      9.500   123.029
11.5535     10.292   121.508
11.7216     11.086   119.964
11.8921     11.880   118.398
12.0650     12.675   116.807
12.2405     13.471   115.191
12.4186     14.269   113.549
12.5992     15.066   111.884
12.7825     15.864   110.191
12.9684     16.663   108.470
13.1570     17.462   106.724
13.3484     18.261   104.946
13.5426     19.062   103.137
13.7395     19.863   101.300
13.9394     20.665    99.429
14.1421     21.469    97.527
14.3478     22.273    95.594
14.5565     23.080    93.625
14.7683     23.886    91.626
14.9831     24.693    89.590
15.2010     25.502    87.515
15.4221     26.310    85.408
15.6464     27.120    83.259
15.8740     27.930    81.070
16.1049     28.740    78.842
16.3392     29.550    76.573
16.5768     30.362    74.263
16.8179     31.175    71.909
17.0626     31.989    69.508
17.3107     32.805    67.062
17.5625     33.621    64.569
17.8180     34.439    62.023
18.0771     35.257    59.427
18.3401     36.076    56.775
18.6068     36.895    54.066
18.8775     37.714    51.302
19.1521     38.533    48.477
19.4306     39.354    45.593
19.7133     40.176    42.644
20.0000     40.999    39.627
20.2909     41.823    36.538
20.5860     42.648    33.375
20.8855     43.473    30.132
21.1893     44.298    26.807
21.4975     45.122    23.399
21.8102     45.945    19.904
22.1274     46.768    16.315
22.4492     47.590    12.627
22.7758     48.413     8.833
23.1071     49.235     4.927
23.4432     50.054     0.908
23.7841     50.870    -3.235
24.1301     51.682    -7.499
24.4811     52.488   -11.898
24.8372     53.288   -16.435
25.1984     54.082   -21.121
25.5649     54.868   -25.961
25.9368     55.643   -30.963
26.3141     56.407   -36.127
26.6968     57.156   -41.452
27.0851     57.888   -46.942
27.4791     58.600   -52.595
27.8788     59.289   -58.415
28.2843     59.952   -64.398
28.6957     60.586   -70.541
29.1131     61.187   -76.828
29.5365     61.755   -83.240
29.9661     62.285   -89.754
30.4020     62.776   -96.343
30.8442     63.226  -102.978
31.2929     63.636  -109.633
31.7480     64.004  -116.282
32.2098     64.333  -122.902
32.6783     64.621  -129.468
33.1536     64.872  -135.958
33.6359     65.086  -142.350
34.1251     65.269  -148.628
34.6215     65.422  -154.777
35.1250     65.548  -160.789
35.6359     65.649  -166.658
36.1543     65.729  -172.378
36.6802     65.790  -177.947
37.2137     65.835   176.640
37.7550     65.865   171.384
38.3041     65.883   166.280
38.8613     65.892   161.323
39.4265     65.893   156.509
40.0000     65.889   151.833
40.5818     65.880   147.292
41.1721     65.868   142.878
41.7710     65.857   138.584
42.3785     65.848   134.395
42.9949     65.842   130.304
43.6203     65.841   126.301
44.2548     65.843   122.374
44.8985     65.848   118.509
45.5515     65.858   114.686
46.2141     65.872   110.888
46.8863     65.891   107.101
47.5683     65.911   103.316
48.2602     65.928    99.521
48.9621     65.940    95.717
49.6743     65.942    91.910
50.3968     65.934    88.112
51.1299     65.911    84.363
51.8736     65.871    80.717
52.6281     65.819    77.217
53.3936     65.765    73.915
54.1702     65.725    70.804
54.9581     65.709    67.820
55.7575     65.726    64.850
56.5685     65.766    61.773
57.3914     65.815    58.524
58.2261     65.856    55.121
59.0730     65.875    51.627
59.9323     65.869    48.113
60.8040     65.842    44.664
61.6884     65.806    41.349
62.5857     65.763    38.174
63.4960     65.718    35.161
64.4196     65.688    32.277
65.3566     65.686    29.383
66.3073     65.703    26.393
67.2717     65.727    23.277
68.2502     65.749    20.023
69.2429     65.761    16.714
70.2501     65.765    13.484
71.2719     65.768    10.369
72.3086     65.772     7.327
73.3603     65.789     4.312
74.4274     65.825     1.251
75.5099     65.869    -1.915
76.6083     65.906    -5.186
77.7226     65.933    -8.564
78.8531     65.941   -12.011
80.0000     65.932   -15.472
81.1636     65.905   -18.931
82.3442     65.864   -22.347
83.5419     65.813   -25.693
84.7570     65.755   -28.955
85.9899     65.700   -32.124
87.2406     65.654   -35.221
88.5096     65.624   -38.274
89.7970     65.612   -41.322
91.1031     65.615   -44.413
92.4282     65.630   -47.572
93.7726     65.654   -50.807
95.1366     65.682   -54.132
96.5204     65.705   -57.556
97.9243     65.725   -61.063
99.3486     65.733   -64.687
100.794     65.721   -68.433
102.260     65.676   -72.232
103.747     65.593   -75.987
105.256     65.481   -79.575
106.787     65.363   -82.912
108.340     65.268   -86.024
109.916     65.219   -89.103
111.515     65.217   -92.412
113.137     65.235   -96.143
114.783     65.216  -100.270
116.452     65.118  -104.522
118.146     64.935  -108.473
119.865     64.704  -111.859
121.608     64.476  -114.647
123.377     64.297  -116.925
125.171     64.193  -118.891
126.992     64.177  -120.789
128.839     64.238  -122.831
130.713     64.354  -125.163
132.615     64.494  -127.824
134.543     64.641  -130.762
136.500     64.791  -133.911
138.486     64.952  -137.247
140.500     65.131  -140.798
142.544     65.325  -144.628
144.617     65.517  -148.774
146.721     65.680  -153.186
148.855     65.802  -157.764
151.020     65.886  -162.408
153.217     65.948  -167.071
155.445     66.009  -171.768
157.706     66.071  -176.550
160.000     66.122   178.555
162.327     66.138   173.567
164.688     66.100   168.567
167.084     66.008   163.677
169.514     65.881   158.993
171.980     65.746   154.550
174.481     65.621   150.340
177.019     65.504   146.316
179.594     65.386   142.454
182.206     65.268   138.765
184.856     65.165   135.249
187.545     65.100   131.864
190.273     65.079   128.536
193.041     65.089   125.176
195.849     65.110   121.741
198.697     65.131   118.245
201.587     65.164   114.737
204.520     65.226   111.238
207.494     65.320   107.667
210.512     65.434   103.884
213.574     65.544    99.830
216.681     65.622    95.593
219.833     65.662    91.320
223.030     65.673    87.102
226.274     65.675    82.983
229.565     65.688    78.951
232.905     65.722    74.926
236.292     65.772    70.807
239.729     65.818    66.550
243.216     65.828    62.214
246.754     65.782    57.934
250.343     65.692    53.841
253.984     65.603    49.993
257.678     65.553    46.342
261.426     65.546    42.777
265.229     65.554    39.159
269.087     65.559    35.421
273.001     65.556    31.604
276.972     65.532    27.829
281.000     65.476    24.217
285.088     65.409    20.810
289.234     65.380    17.551
293.441     65.424    14.289
297.709     65.529    10.804
302.040     65.648     6.928
306.433     65.723     2.690
310.890     65.707    -1.667
315.412     65.594    -5.854
320.000     65.437    -9.739
324.655     65.316   -13.330
329.377     65.234   -16.653
334.168     65.142   -19.738
339.028     65.036   -22.673
343.959     64.982   -25.512
348.962     65.009   -28.327
354.038     65.080   -31.307
359.188     65.146   -34.532
364.412     65.162   -37.794
369.713     65.116   -40.846
375.090     65.077   -43.679
380.546     65.153   -46.477
386.081     65.362   -49.469
391.697     65.578   -52.889
397.394     65.703   -56.730
403.175     65.761   -60.693
409.039     65.827   -64.762
414.989     65.931   -68.855
421.025     66.003   -72.810
427.149     66.004   -76.696
433.362     66.015   -80.591
439.665     66.100   -84.513
446.060     66.261   -88.801
452.548     66.432   -93.598
459.131     66.464   -98.543
465.809     66.298  -103.213
472.584     66.085  -107.521
479.458     66.026  -111.587
486.432     66.152  -115.822
493.507     66.259  -120.873
500.686     66.217  -127.351
507.968     66.169  -132.214
515.357     66.103  -136.948
522.853     66.032  -141.476
530.458     65.974  -145.794
538.174     65.968  -149.934
546.002     66.032  -154.151
553.943     66.136  -158.890
562.001     66.213  -164.210
570.175     66.225  -169.807
578.469     66.181  -175.476
586.883     66.070   178.893
595.419     65.892   173.769
604.080     65.738   169.417
612.866     65.708   165.389
621.780     65.781   160.874
630.824     65.867   155.636
640.000     65.907   149.885
649.309     65.894   144.028
658.753     65.852   138.247
668.335     65.795   132.482
678.056     65.745   126.701
687.919     65.710   120.871
697.925     65.684   114.906
708.077     65.672   109.040
718.376     65.703   103.073
728.825     65.766    96.917
739.426     65.850    90.433
750.181     65.964    83.511
761.093     66.070    76.087
772.163     66.141    68.229
783.394     66.181    59.954
794.789     66.176    51.365
806.349     66.117    42.537
818.078     66.010    33.544
829.977     65.859    24.471
842.050     65.669    15.376
854.298     65.457     6.287
866.724     65.243    -2.727
879.330     65.040   -11.667
892.120     64.862   -20.513
905.097     64.730   -29.313
918.262     64.654   -38.099
931.618     64.641   -46.972
945.169     64.688   -55.989
958.917     64.788   -65.304
972.864     64.928   -75.014
987.015     65.094   -85.155
1001.37     65.276   -95.698
1015.94     65.459  -106.559
1030.71     65.630  -117.653
1045.71     65.766  -128.863
1060.92     65.853  -140.066
1076.35     65.900  -151.106
1092.00     65.903  -161.892
1107.89     65.866  -172.363
1124.00     65.819   177.580
1140.35     65.771   167.951
1156.94     65.723   158.722
1173.77     65.670   149.854
1190.84     65.602   141.261
1208.16     65.520   132.894
1225.73     65.433   124.847
1243.56     65.359   117.204
1261.65     65.312   109.993
1280.00     65.295   103.156
1298.62     65.325    96.557
1317.51     65.421    90.032
1336.67     65.544    83.473
1356.11     65.658    76.776
1375.84     65.756    69.892
1395.85     65.817    62.880
1416.15     65.823    55.851
1436.75     65.783    48.993
1457.65     65.734    42.527
1478.85     65.699    36.601
1500.36     65.689    31.119
1522.19     65.735    25.785
1544.33     65.862    20.253
1566.79     66.046    14.253
1589.58     66.229     7.687
1612.70     66.355     0.707
1636.16     66.389    -6.391
1659.95     66.338   -13.296
1684.10     66.225   -19.826
1708.60     66.086   -25.901
1733.45     65.964   -31.614
1758.66     65.886   -37.138
1784.24     65.851   -42.603
1810.19     65.833   -48.060
1836.52     65.800   -53.522
1863.24     65.745   -58.912
1890.34     65.685   -64.192
1917.83     65.650   -69.362
1945.73     65.653   -74.500
1974.03     65.681   -79.671
2002.74     65.707   -84.995
2031.87     65.722   -90.450
2061.43     65.734   -95.995
2091.41     65.743  -101.596
2121.83     65.729  -107.144
2152.69     65.677  -112.523
2184.01     65.609  -117.719
2215.77     65.587  -122.838
2248.00     65.649  -128.030
2280.70     65.750  -133.395
2313.87     65.796  -138.886
2347.53     65.745  -144.288
2381.68     65.662  -149.473
2416.32     65.664  -154.479
2451.46     65.771  -159.536
2487.12     65.890  -164.741
2523.30     65.958  -170.246
2560.00     66.005  -176.044
2597.24     66.070   177.948
2635.01     66.122   171.857
2673.34     66.117   165.692
2712.23     66.078   159.485
2751.68     66.068   153.248
2791.70     66.100   146.965
2832.31     66.133   140.559
2873.50     66.142   134.009
2915.30     66.132   127.462
2957.70     66.114   120.999
3000.72     66.122   114.465
3044.37     66.168   107.786
3088.65     66.191   101.068
3133.58     66.131    94.362
3179.16     66.024    87.688
3225.40     65.933    81.173
3272.31     65.864    74.815
3319.91     65.805    68.337
3368.20     65.759    61.719
3417.19     65.688    55.262
3466.89     65.581    48.864
3517.32     65.556    42.262
3568.48     65.687    35.411
3620.39     65.826    28.488
3673.05     65.836    21.224
3726.47     65.814    13.613
3780.67     65.856     5.962
3835.67     65.876    -1.544
3891.46     65.810    -9.127
3948.06     65.718   -16.678
4005.49     65.660   -24.050
4063.75     65.640   -31.279
4122.86     65.633   -38.395
4182.82     65.664   -45.641
4243.66     65.805   -53.287
4305.39     66.027   -61.404
4368.01     66.197   -69.959
4431.55     66.231   -78.957
4496.01     66.189   -88.120
4561.40     66.123   -97.043
4627.75     65.988  -105.620
4695.06     65.852  -114.199
4763.35     65.838  -122.860
4832.64     65.909  -131.628
4902.93     65.943  -140.648
4974.24     65.896  -149.839
5046.60     65.825  -159.117
5120.00     65.797  -168.333
5194.47     65.769  -177.297
5270.03     65.705   173.727
5346.68     65.692   164.522
5424.45     65.766   155.223
5503.35     65.840   145.706
5583.40     65.883   135.602
5664.61     65.890   125.465
5747.01     65.807   115.607
5830.60     65.721   105.553
5915.41     65.798    95.371
6001.45     65.916    85.243
6088.74     65.970    74.450
6177.30     66.058    63.183
6267.15     66.141    51.821
6358.31     66.175    39.971
6450.80     66.173    27.949
6544.62     66.112    15.722
6639.82     66.025     3.480
6736.40     65.858    -8.392
6834.38     65.644   -20.053
6933.79     65.492   -31.338
7034.64     65.390   -42.276
7136.96     65.389   -53.440
7240.77     65.509   -64.956
7346.09     65.666   -76.961
7452.94     65.762   -89.418
7561.35     65.741  -101.986
7671.33     65.651  -114.405
7782.91     65.589  -126.663
7896.12     65.660  -138.961
8010.97     65.903  -151.821
8127.49     66.232  -165.523
8245.71     66.556   179.155
8365.65     66.784   162.958
8487.33     66.718   146.754
8610.78     66.347   131.252
8736.03     66.027   116.116
8863.09     66.008   101.577
8992.01     66.091    87.271
9122.80     66.130    72.141
9255.50     66.274    55.945
9390.12     66.448    39.278
9526.70     66.435    22.321
9665.27     66.244     5.096
9805.86     66.024   -12.189
9948.49     65.875   -28.882
10093.2     65.662   -45.153
10240.0     65.449   -61.838
10388.9     65.398   -78.384
10540.1     65.329   -94.665
10693.4     65.200  -111.237
10848.9     65.208  -128.415
11006.7     65.387  -146.216
11166.8     65.662  -164.841
11329.2     65.985   175.693
11494.0     66.281   155.446
11661.2     66.468   134.185
11830.8     66.469   112.557
12002.9     66.128    91.879
12177.5     65.530    71.434
12354.6     65.331    50.728
12534.3     65.568    30.641
12716.6     65.846    10.122
12901.6     66.079   -11.833
13089.2     66.211   -34.948
13279.6     66.180   -58.581
13472.8     66.084   -82.768
13668.8     66.071  -107.120
13867.6     66.028  -131.393
14069.3     65.981  -156.093
14273.9     66.145   177.887
14481.5     66.387   150.418
14692.2     66.389   121.922
14905.9     65.783    94.093
15122.7     64.742    67.758
15342.7     63.813    44.678
15565.8     63.606    22.103
15792.2     64.607    -3.120
16021.9     65.907   -31.761
16255.0     66.511   -63.659
16491.4     66.320   -98.032
16731.3     65.962  -134.194
16974.7     65.918  -170.569
17221.6     65.508   153.799
17472.1     64.180   119.613
17726.2     62.535    82.086
17984.0     61.586    54.127
18245.6     60.475    30.018
18511.0     60.121    -0.723
18780.2     61.811   -36.125
19053.4     62.154   -71.053
19330.5     60.789  -114.791
19611.7     59.025  -160.022
19897.0     57.367   159.030
20186.4     55.432   121.208
20480.0     52.976    87.700
20777.9     50.648    54.495
21080.1     50.532    13.012
21386.7     51.630   -55.557
21697.8     50.696  -157.038
22013.4     46.348    89.727
22333.6     42.775   -24.759
22658.4     44.676  -130.462
22988.0     45.462   152.514
23322.4     45.351    95.054
23661.6     45.357    37.046
24005.8     46.190   -23.500
24355.0     47.328   -83.519
24709.2     47.503  -142.286
25068.6     47.333   157.688
25433.2     47.849    99.427
25803.2     48.210    44.784
26178.5     47.929   -11.079
26559.3     47.444   -65.342
26945.6     46.874  -117.044
27337.5     46.637  -171.018
27735.2     47.099   132.854
28138.6     46.890    73.961
28547.9     45.819     9.275
28963.1     44.333   -58.380
29384.4     41.800  -127.495
29811.8     38.386   159.755
30245.4     35.448    87.261
30685.3     34.451    15.759
31131.7     36.656   -57.753
31584.5     40.098  -130.852
32043.9     42.686   159.217
32510.0     44.659    84.313
32982.8     46.329    10.683
33462.6     46.532   -54.797
33949.3     45.548  -121.361
34443.1     45.913   170.356
34944.1     46.161   107.056
35452.4     43.888    41.849
35968.0     43.495   -31.719
36491.2     43.387  -104.979
37022.0     41.535  -178.783
37560.5     37.842    88.861
38106.8     33.350   -37.959
38661.1     28.243  -171.517
39223.4     23.016    67.451
39793.9     18.499   -47.842
