Freq[Hz]     dBSPL  Phase[Deg]
5.00000     79.999     0.167
5.07273     79.999     0.170
5.14651     79.999     0.172
5.22137     79.999     0.174
5.29732     79.999     0.177
5.37437     79.999     0.180
5.45254     79.999     0.182
5.53185     79.999     0.185
5.61231     79.999     0.188
5.69394     79.999     0.190
5.77676     79.999     0.193
5.86079     79.999     0.196
5.94604     79.999     0.199
6.03252     79.999     0.202
6.12027     79.999     0.205
6.20929     79.999     0.207
6.29961     79.999     0.211
6.39124     79.999     0.214
6.48420     79.999     0.217
6.57851     79.999     0.220
6.67420     79.999     0.223
6.77128     79.999     0.226
6.86977     79.999     0.230
6.96969     79.999     0.233
7.07107     79.999     0.236
7.17392     79.999     0.240
7.27827     79.999     0.243
7.38413     79.999     0.247
7.49154     79.999     0.250
7.60050     79.999     0.254
7.71105     79.999     0.258
7.82321     79.999     0.261
7.93701     79.999     0.265
8.05245     79.999     0.269
8.16958     79.999     0.273
8.28841     79.999     0.277
8.40896     80.000     0.281
8.53128     80.000     0.285
8.65537     80.000     0.289
8.78126     80.000     0.293
8.90899     80.000     0.298
9.03857     80.000     0.302
9.17004     80.000     0.306
9.30342     80.000     0.311
9.43874     80.000     0.315
9.57603     80.000     0.320
9.71532     80.000     0.325
9.85663     80.000     0.329
10.0000     80.000     0.334
10.1455     80.000     0.339
10.2930     80.000     0.344
10.4427     80.000     0.349
10.5946     80.000     0.354
10.7487     80.000     0.359
10.9051     80.000     0.364
11.0637     80.000     0.370
11.2246     80.000     0.375
11.3879     80.000     0.380
11.5535     80.000     0.386
11.7216     80.000     0.392
11.8921     80.000     0.397
12.0650     80.000     0.403
12.2405     80.000     0.409
12.4186     80.000     0.415
12.5992     80.000     0.421
12.7825     80.000     0.427
12.9684     80.000     0.433
13.1570     80.000     0.440
13.3484     80.000     0.446
13.5426     80.000     0.452
13.7395     80.001     0.459
13.9394     80.001     0.466
14.1421     80.001     0.472
14.3478     80.001     0.479
14.5565     80.001     0.486
14.7683     80.001     0.493
14.9831     80.001     0.501
15.2010     80.001     0.508
15.4221     80.001     0.515
15.6464     80.001     0.523
15.8740     80.001     0.530
16.1049     80.001     0.538
16.3392     80.001     0.546
16.5768     80.001     0.554
16.8179     80.001     0.562
17.0626     80.001     0.570
17.3107     80.001     0.578
17.5625     80.002     0.587
17.8180     80.002     0.595
18.0771     80.002     0.604
18.3401     80.002     0.613
18.6068     80.002     0.621
18.8775     80.002     0.630
19.1521     80.002     0.640
19.4306     80.002     0.649
19.7133     80.002     0.658
20.0000     80.002     0.668
20.2909     80.002     0.678
20.5860     80.003     0.687
20.8855     80.003     0.697
21.1893     80.003     0.708
21.4975     80.003     0.718
21.8102     80.003     0.728
22.1274     80.003     0.739
22.4492     80.003     0.750
22.7758     80.003     0.760
23.1071     80.004     0.771
23.4432     80.004     0.783
23.7841     80.004     0.794
24.1301     80.004     0.806
24.4811     80.004     0.817
24.8372     80.004     0.829
25.1984     80.004     0.841
25.5649     80.005     0.853
25.9368     80.005     0.866
26.3141     80.005     0.878
26.6968     80.005     0.891
27.0851     80.005     0.904
27.4791     80.005     0.917
27.8788     80.006     0.930
28.2843     80.006     0.944
28.6957     80.006     0.957
29.1131     80.006     0.971
29.5365     80.006     0.985
29.9661     80.007     1.000
30.4020     80.007     1.014
30.8442     80.007     1.029
31.2929     80.007     1.044
31.7480     80.008     1.059
32.2098     80.008     1.074
32.6783     80.008     1.090
33.1536     80.008     1.106
33.6359     80.009     1.122
34.1251     80.009     1.138
34.6215     80.009     1.154
35.1250     80.010     1.171
35.6359     80.010     1.188
36.1543     80.010     1.205
36.6802     80.011     1.223
37.2137     80.011     1.240
37.7550     80.011     1.258
38.3041     80.012     1.276
38.8613     80.012     1.295
39.4265     80.012     1.314
40.0000     80.013     1.333
40.5818     80.013     1.352
41.1721     80.014     1.371
41.7710     80.014     1.391
42.3785     80.014     1.411
42.9949     80.015     1.432
43.6203     80.015     1.452
44.2548     80.016     1.473
44.8985     80.016     1.495
45.5515     80.017     1.516
46.2141     80.017     1.538
46.8863     80.018     1.560
47.5683     80.018     1.583
48.2602     80.019     1.606
48.9621     80.020     1.629
49.6743     80.020     1.652
50.3968     80.021     1.676
51.1299     80.021     1.700
51.8736     80.022     1.725
52.6281     80.023     1.749
53.3936     80.023     1.775
54.1702     80.024     1.800
54.9581     80.025     1.826
55.7575     80.026     1.852
56.5685     80.026     1.879
57.3914     80.027     1.906
58.2261     80.028     1.933
59.0730     80.029     1.961
59.9323     80.030     1.989
60.8040     80.031     2.018
61.6884     80.032     2.046
62.5857     80.033     2.076
63.4960     80.034     2.105
64.4196     80.035     2.136
65.3566     80.036     2.166
66.3073     80.037     2.197
67.2717     80.038     2.229
68.2502     80.039     2.260
69.2429     80.040     2.293
70.2501     80.041     2.325
71.2719     80.043     2.359
72.3086     80.044     2.392
73.3603     80.045     2.426
74.4274     80.046     2.461
75.5099     80.048     2.496
76.6083     80.049     2.531
77.7226     80.051     2.567
78.8531     80.052     2.604
80.0000     80.054     2.641
81.1636     80.055     2.678
82.3442     80.057     2.716
83.5419     80.059     2.754
84.7570     80.061     2.793
85.9899     80.062     2.833
87.2406     80.064     2.873
88.5096     80.066     2.913
89.7970     80.068     2.954
91.1031     80.070     2.996
92.4282     80.072     3.038
93.7726     80.074     3.081
95.1366     80.076     3.124
96.5204     80.079     3.168
97.9243     80.081     3.212
99.3486     80.083     3.257
100.794     80.086     3.303
102.260     80.088     3.349
103.747     80.091     3.395
105.256     80.094     3.443
106.787     80.096     3.490
108.340     80.099     3.539
109.916     80.102     3.588
111.515     80.105     3.638
113.137     80.108     3.688
114.783     80.111     3.739
116.452     80.114     3.790
118.146     80.118     3.843
119.865     80.121     3.895
121.608     80.125     3.949
123.377     80.128     4.003
125.171     80.132     4.057
126.992     80.136     4.113
128.839     80.140     4.169
130.713     80.144     4.225
132.615     80.148     4.283
134.543     80.153     4.340
136.500     80.157     4.399
138.486     80.161     4.458
140.500     80.166     4.518
142.544     80.171     4.578
144.617     80.176     4.640
146.721     80.181     4.701
148.855     80.186     4.764
151.020     80.192     4.827
153.217     80.197     4.891
155.445     80.203     4.955
157.706     80.209     5.020
160.000     80.215     5.086
162.327     80.221     5.152
164.688     80.227     5.219
167.084     80.233     5.287
169.514     80.240     5.355
171.980     80.247     5.424
174.481     80.254     5.493
177.019     80.261     5.563
179.594     80.269     5.634
182.206     80.276     5.705
184.856     80.284     5.777
187.545     80.292     5.849
190.273     80.301     5.922
193.041     80.309     5.996
195.849     80.318     6.070
198.697     80.327     6.144
201.587     80.336     6.219
204.520     80.345     6.295
207.494     80.355     6.371
210.512     80.365     6.447
213.574     80.375     6.524
216.681     80.386     6.601
219.833     80.397     6.678
223.030     80.408     6.756
226.274     80.419     6.835
229.565     80.431     6.913
232.905     80.443     6.992
236.292     80.455     7.071
239.729     80.468     7.150
243.216     80.481     7.229
246.754     80.494     7.309
250.343     80.507     7.388
253.984     80.521     7.468
257.678     80.536     7.547
261.426     80.550     7.626
265.229     80.565     7.706
269.087     80.581     7.785
273.001     80.596     7.864
276.972     80.612     7.943
281.000     80.629     8.021
285.088     80.646     8.099
289.234     80.663     8.176
293.441     80.681     8.253
297.709     80.699     8.330
302.040     80.718     8.406
306.433     80.737     8.480
310.890     80.756     8.555
315.412     80.776     8.628
320.000     80.797     8.700
324.655     80.817     8.771
329.377     80.839     8.841
334.168     80.861     8.910
339.028     80.883     8.977
343.959     80.906     9.043
348.962     80.929     9.107
354.038     80.952     9.169
359.188     80.977     9.230
364.412     81.001     9.289
369.713     81.027     9.345
375.090     81.052     9.399
380.546     81.079     9.451
386.081     81.105     9.501
391.697     81.133     9.548
397.394     81.160     9.592
403.175     81.189     9.633
409.039     81.217     9.671
414.989     81.247     9.705
421.025     81.276     9.737
427.149     81.307     9.765
433.362     81.337     9.789
439.665     81.369     9.809
446.060     81.400     9.825
452.548     81.432     9.836
459.131     81.465     9.843
465.809     81.498     9.846
472.584     81.532     9.843
479.458     81.566     9.836
486.432     81.600     9.823
493.507     81.635     9.805
500.686     81.670     9.781
507.968     81.706     9.752
515.357     81.741     9.716
522.853     81.778     9.674
530.458     81.814     9.626
538.174     81.851     9.571
546.002     81.888     9.509
553.943     81.925     9.441
562.001     81.962     9.365
570.175     81.999     9.281
578.469     82.037     9.191
586.883     82.074     9.092
595.419     82.112     8.986
604.080     82.150     8.871
612.866     82.187     8.749
621.780     82.224     8.618
630.824     82.261     8.479
640.000     82.298     8.331
649.309     82.335     8.175
658.753     82.371     8.010
668.335     82.407     7.836
678.056     82.442     7.654
687.919     82.477     7.463
697.925     82.512     7.263
708.077     82.545     7.054
718.376     82.578     6.837
728.825     82.610     6.611
739.426     82.642     6.377
750.181     82.672     6.135
761.093     82.702     5.884
772.163     82.730     5.625
783.394     82.757     5.359
794.789     82.783     5.084
806.349     82.808     4.803
818.078     82.832     4.515
829.977     82.854     4.220
842.050     82.875     3.918
854.298     82.894     3.611
866.724     82.912     3.298
879.330     82.929     2.980
892.120     82.943     2.657
905.097     82.956     2.331
918.262     82.968     2.000
931.618     82.977     1.666
945.169     82.985     1.330
958.917     82.991     0.991
972.864     82.996     0.651
987.015     82.998     0.309
1001.37     82.999    -0.032
1015.94     82.998    -0.374
1030.71     82.995    -0.715
1045.71     82.990    -1.056
1060.92     82.984    -1.394
1076.35     82.976    -1.730
1092.00     82.966    -2.063
1107.89     82.954    -2.393
1124.00     82.941    -2.720
1140.35     82.926    -3.041
1156.94     82.909    -3.359
1173.77     82.891    -3.671
1190.84     82.871    -3.977
1208.16     82.850    -4.277
1225.73     82.827    -4.571
1243.56     82.804    -4.858
1261.65     82.778    -5.139
1280.00     82.752    -5.411
1298.62     82.724    -5.677
1317.51     82.696    -5.934
1336.67     82.666    -6.183
1356.11     82.636    -6.425
1375.84     82.604    -6.657
1395.85     82.572    -6.882
1416.15     82.539    -7.097
1436.75     82.505    -7.304
1457.65     82.470    -7.503
1478.85     82.435    -7.692
1500.36     82.400    -7.873
1522.19     82.364    -8.045
1544.33     82.327    -8.208
1566.79     82.291    -8.363
1589.58     82.254    -8.509
1612.70     82.216    -8.647
1636.16     82.179    -8.776
1659.95     82.141    -8.897
1684.10     82.104    -9.010
1708.60     82.066    -9.115
1733.45     82.029    -9.212
1758.66     81.991    -9.301
1784.24     81.954    -9.383
1810.19     81.916    -9.457
1836.52     81.879    -9.524
1863.24     81.842    -9.585
1890.34     81.805    -9.638
1917.83     81.769    -9.685
1945.73     81.733    -9.725
1974.03     81.697    -9.760
2002.74     81.661    -9.788
2031.87     81.626    -9.810
2061.43     81.591    -9.827
2091.41     81.557    -9.838
2121.83     81.523    -9.845
2152.69     81.489    -9.846
2184.01     81.456    -9.842
2215.77     81.424    -9.833
2248.00     81.392    -9.821
2280.70     81.360    -9.803
2313.87     81.329    -9.782
2347.53     81.298    -9.757
2381.68     81.268    -9.728
2416.32     81.238    -9.696
2451.46     81.209    -9.660
2487.12     81.180    -9.621
2523.30     81.152    -9.578
2560.00     81.124    -9.533
2597.24     81.097    -9.485
2635.01     81.070    -9.435
2673.34     81.044    -9.382
2712.23     81.018    -9.326
2751.68     80.993    -9.269
2791.70     80.968    -9.209
2832.31     80.944    -9.148
2873.50     80.920    -9.084
2915.30     80.897    -9.019
2957.70     80.875    -8.952
3000.72     80.852    -8.884
3044.37     80.831    -8.815
3088.65     80.809    -8.744
3133.58     80.788    -8.672
3179.16     80.768    -8.598
3225.40     80.748    -8.524
3272.31     80.729    -8.449
3319.91     80.710    -8.373
3368.20     80.691    -8.297
3417.19     80.673    -8.219
3466.89     80.655    -8.141
3517.32     80.638    -8.063
3568.48     80.621    -7.984
3620.39     80.605    -7.905
3673.05     80.589    -7.825
3726.47     80.573    -7.745
3780.67     80.557    -7.665
3835.67     80.542    -7.585
3891.46     80.528    -7.505
3948.06     80.514    -7.424
4005.49     80.500    -7.344
4063.75     80.486    -7.263
4122.86     80.473    -7.183
4182.82     80.460    -7.103
4243.66     80.448    -7.023
4305.39     80.435    -6.943
4368.01     80.423    -6.863
4431.55     80.412    -6.784
4496.01     80.400    -6.704
4561.40     80.389    -6.626
4627.75     80.379    -6.547
4695.06     80.368    -6.469
4763.35     80.358    -6.391
4832.64     80.348    -6.314
4902.93     80.338    -6.237
4974.24     80.329    -6.160
5046.60     80.320    -6.084
5120.00     80.311    -6.009
5194.47     80.302    -5.934
5270.03     80.293    -5.859
5346.68     80.285    -5.785
5424.45     80.277    -5.712
5503.35     80.269    -5.639
5583.40     80.262    -5.567
5664.61     80.254    -5.495
5747.01     80.247    -5.424
5830.60     80.240    -5.353
5915.41     80.233    -5.283
6001.45     80.226    -5.214
6088.74     80.220    -5.145
6177.30     80.214    -5.077
6267.15     80.208    -5.009
6358.31     80.202    -4.942
6450.80     80.196    -4.876
6544.62     80.190    -4.810
6639.82     80.185    -4.745
6736.40     80.179    -4.681
6834.38     80.174    -4.617
6933.79     80.169    -4.554
7034.64     80.164    -4.492
7136.96     80.159    -4.430
7240.77     80.155    -4.369
7346.09     80.150    -4.308
7452.94     80.146    -4.248
7561.35     80.141    -4.189
7671.33     80.137    -4.130
7782.91     80.133    -4.072
7896.12     80.129    -4.015
8010.97     80.125    -3.958
8127.49     80.122    -3.902
8245.71     80.118    -3.846
8365.65     80.115    -3.791
8487.33     80.111    -3.737
8610.78     80.108    -3.683
8736.03     80.105    -3.630
8863.09     80.101    -3.577
8992.01     80.098    -3.525
9122.80     80.095    -3.474
9255.50     80.092    -3.423
9390.12     80.090    -3.373
9526.70     80.087    -3.323
9665.27     80.084    -3.274
9805.86     80.082    -3.226
9948.49     80.079    -3.178
10093.2     80.077    -3.130
10240.0     80.074    -3.084
10388.9     80.072    -3.037
10540.1     80.070    -2.992
10693.4     80.068    -2.946
10848.9     80.066    -2.902
11006.7     80.063    -2.857
11166.8     80.061    -2.814
11329.2     80.060    -2.771
11494.0     80.058    -2.728
11661.2     80.056    -2.686
11830.8     80.054    -2.644
12002.9     80.052    -2.603
12177.5     80.051    -2.562
12354.6     80.049    -2.522
12534.3     80.047    -2.482
12716.6     80.046    -2.443
12901.6     80.044    -2.404
13089.2     80.043    -2.366
13279.6     80.041    -2.328
13472.8     80.040    -2.290
13668.8     80.039    -2.253
13867.6     80.037    -2.216
14069.3     80.036    -2.180
14273.9     80.035    -2.144
14481.5     80.034    -2.109
14692.2     80.033    -2.074
14905.9     80.031    -2.039
15122.7     80.030    -2.005
15342.7     80.029    -1.971
15565.8     80.028    -1.937
15792.2     80.027    -1.904
16021.9     80.026    -1.871
16255.0     80.025    -1.839
16491.4     80.024    -1.807
16731.3     80.023    -1.775
16974.7     80.023    -1.744
17221.6     80.022    -1.713
17472.1     80.021    -1.682
17726.2     80.020    -1.652
17984.0     80.019    -1.621
18245.6     80.019    -1.592
18511.0     80.018    -1.562
18780.2     80.017    -1.533
19053.4     80.016    -1.504
19330.5     80.016    -1.475
19611.7     80.015    -1.447
19897.0     80.015    -1.419
20186.4     80.014    -1.391
20480.0     80.013    -1.364
20777.9     80.013    -1.337
21080.1     80.012    -1.310
21386.7     80.012    -1.283
21697.8     80.011    -1.256
22013.4     80.011    -1.230
22333.6     80.010    -1.204
22658.4     80.010    -1.178
22988.0     80.009    -1.152
23322.4     80.009    -1.127
23661.6     80.008    -1.102
24005.8     80.008    -1.077
24355.0     80.007    -1.052
24709.2     80.007    -1.027
25068.6     80.007    -1.003
25433.2     80.006    -0.978
25803.2     80.006    -0.954
26178.5     80.006    -0.930
26559.3     80.005    -0.906
26945.6     80.005    -0.883
27337.5     80.005    -0.859
27735.2     80.004    -0.836
28138.6     80.004    -0.813
28547.9     80.004    -0.789
28963.1     80.003    -0.766
29384.4     80.003    -0.743
29811.8     80.003    -0.721
30245.4     80.003    -0.698
30685.3     80.002    -0.675
31131.7     80.002    -0.653
31584.5     80.002    -0.630
32043.9     80.002    -0.608
32510.0     80.002    -0.585
32982.8     80.001    -0.563
33462.6     80.001    -0.540
33949.3     80.001    -0.518
34443.1     80.001    -0.496
34944.1     80.001    -0.473
35452.4     80.000    -0.451
35968.0     80.000    -0.429
36491.2     80.000    -0.406
37022.0     80.000    -0.384
37560.5     80.000    -0.362
38106.8     80.000    -0.339
38661.1     80.000    -0.316
39223.4     80.000    -0.294
39793.9     79.999    -0.271
